Name: Ryan
measurement station: King Louie
Sample: PST 380 I2
date: Monday, July 01, 2019
time: 4:58 PM
Comment: 
PST380 I2
8-Terminal Hall Bar
July 1st, 2019

Pushing current from 5 to 12
Measuring Vxx from 3 to 2 using Agilent, GPIB 23
Measuring Vxy from 8 to 3 using Keysight 1, GPIB 22

Pushing a voltage of 100.0 mV at frequency 37.37Hz
Through divider of 1224:12
Reference resistance of 4.9582 Kilohms
Ref. resistance voltage measured using Keysight 2, GPIB 24

Ref. resistance:Rxx:Rxy sensitivities are 1:1:1
Sweeping magnetic field from -1 to 14T at 0.1 T/min
Start Value B: 0.000000
End Value B: -1.000000
---------						
B field / T	Temperature (Ohm)	I-Keysight 01	Uxx-Keysight 02	Uxy- Ag1 Ch1	Rxx	Rxy
						
0.00000E+0	2.09360E+4	1.17700E-2	6.36578E+0	1.25914E+0	5.38958E+5	1.06605E+5
-2.90000E-3	2.09400E+4	1.17407E-2	6.36627E+0	1.24875E+0	5.40346E+5	1.05989E+5
-9.60000E-3	2.09460E+4	1.17319E-2	6.36701E+0	1.26207E+0	5.40817E+5	1.07201E+5
-1.73000E-2	2.09520E+4	1.17069E-2	6.36740E+0	1.24979E+0	5.42004E+5	1.06384E+5
-2.53000E-2	2.09550E+4	1.16653E-2	6.36589E+0	1.25081E+0	5.43808E+5	1.06851E+5
-3.38000E-2	2.09650E+4	1.16524E-2	6.36515E+0	1.25433E+0	5.44348E+5	1.07270E+5
-4.22000E-2	2.09670E+4	1.16569E-2	6.36419E+0	1.24897E+0	5.44052E+5	1.06770E+5
-5.04000E-2	2.09680E+4	1.15949E-2	6.36363E+0	1.25181E+0	5.46915E+5	1.07586E+5
-5.87000E-2	2.09770E+4	1.15295E-2	6.36302E+0	1.25471E+0	5.49966E+5	1.08446E+5
-6.75000E-2	2.09760E+4	1.15380E-2	6.36270E+0	1.24921E+0	5.49532E+5	1.07891E+5
-7.57000E-2	2.09850E+4	1.15101E-2	6.36212E+0	1.26128E+0	5.50816E+5	1.09198E+5
-8.41000E-2	2.09860E+4	1.14712E-2	6.36198E+0	1.24677E+0	5.52667E+5	1.08307E+5
-9.27000E-2	2.09890E+4	1.14642E-2	6.36159E+0	1.25579E+0	5.52975E+5	1.09158E+5
-1.01100E-1	2.09970E+4	1.14041E-2	6.36152E+0	1.25639E+0	5.55880E+5	1.09785E+5
-1.09400E-1	2.10000E+4	1.13788E-2	6.36094E+0	1.25691E+0	5.57064E+5	1.10075E+5
-1.18100E-1	2.10020E+4	1.13782E-2	6.36092E+0	1.25188E+0	5.57093E+5	1.09641E+5
-1.26500E-1	2.10020E+4	1.13572E-2	6.36063E+0	1.25481E+0	5.58097E+5	1.10100E+5
-1.34700E-1	2.10080E+4	1.12953E-2	6.36051E+0	1.25426E+0	5.61145E+5	1.10655E+5
-1.43500E-1	2.10100E+4	1.12343E-2	6.36048E+0	1.25059E+0	5.64192E+5	1.10931E+5
-1.51700E-1	2.10120E+4	1.12298E-2	6.36028E+0	1.24493E+0	5.64398E+5	1.10472E+5
-1.60100E-1	2.10150E+4	1.12107E-2	6.35962E+0	1.26147E+0	5.65302E+5	1.12131E+5
-1.68600E-1	2.10200E+4	1.11860E-2	6.35984E+0	1.25587E+0	5.66567E+5	1.11879E+5
-1.76900E-1	2.10210E+4	1.11609E-2	6.35956E+0	1.25665E+0	5.67821E+5	1.12202E+5
-1.85200E-1	2.10230E+4	1.11473E-2	6.35963E+0	1.25275E+0	5.68518E+5	1.11989E+5
-1.93500E-1	2.10240E+4	1.11128E-2	6.35934E+0	1.25417E+0	5.70257E+5	1.12464E+5
-2.02300E-1	2.10260E+4	1.10427E-2	6.35924E+0	1.25310E+0	5.73868E+5	1.13081E+5
-2.10600E-1	2.10270E+4	1.10624E-2	6.35934E+0	1.25208E+0	5.72857E+5	1.12789E+5
-2.18900E-1	2.10340E+4	1.09935E-2	6.35902E+0	1.24725E+0	5.76418E+5	1.13058E+5
-2.27500E-1	2.10310E+4	1.10323E-2	6.35888E+0	1.26395E+0	5.74374E+5	1.14168E+5
-2.35900E-1	2.10340E+4	1.09723E-2	6.35883E+0	1.24604E+0	5.77510E+5	1.13166E+5
-2.44100E-1	2.10350E+4	1.09318E-2	6.35841E+0	1.26564E+0	5.79615E+5	1.15372E+5
-2.52800E-1	2.10390E+4	1.08854E-2	6.35869E+0	1.25482E+0	5.82110E+5	1.14873E+5
-2.61200E-1	2.10380E+4	1.08593E-2	6.35860E+0	1.24607E+0	5.83502E+5	1.14346E+5
-2.69400E-1	2.10430E+4	1.08395E-2	6.35855E+0	1.25546E+0	5.84562E+5	1.15419E+5
-2.77600E-1	2.10420E+4	1.07716E-2	6.35839E+0	1.24673E+0	5.88231E+5	1.15339E+5
-2.86500E-1	2.10440E+4	1.07619E-2	6.35823E+0	1.25445E+0	5.88748E+5	1.16157E+5
-2.94800E-1	2.10480E+4	1.07368E-2	6.35823E+0	1.25792E+0	5.90125E+5	1.16751E+5
-3.03000E-1	2.10440E+4	1.07288E-2	6.35806E+0	1.25818E+0	5.90549E+5	1.16862E+5
-3.11700E-1	2.10460E+4	1.06573E-2	6.35802E+0	1.25581E+0	5.94506E+5	1.17424E+5
-3.20000E-1	2.10510E+4	1.06597E-2	6.35794E+0	1.25539E+0	5.94365E+5	1.17358E+5
-3.28400E-1	2.10470E+4	1.06281E-2	6.35786E+0	1.25749E+0	5.96124E+5	1.17904E+5
-3.37100E-1	2.10520E+4	1.05291E-2	6.35772E+0	1.25090E+0	6.01716E+5	1.18389E+5
-3.45500E-1	2.10500E+4	1.05214E-2	6.35748E+0	1.25661E+0	6.02136E+5	1.19017E+5
-3.53700E-1	2.10560E+4	1.05051E-2	6.35745E+0	1.25545E+0	6.03065E+5	1.19091E+5
-3.62400E-1	2.10550E+4	1.04246E-2	6.35723E+0	1.25604E+0	6.07701E+5	1.20068E+5
-3.70800E-1	2.10520E+4	1.04364E-2	6.35725E+0	1.25710E+0	6.07017E+5	1.20033E+5
-3.79000E-1	2.10590E+4	1.04040E-2	6.35729E+0	1.25903E+0	6.08912E+5	1.20592E+5
-3.87200E-1	2.10550E+4	1.03487E-2	6.35710E+0	1.26040E+0	6.12146E+5	1.21368E+5
-3.96100E-1	2.10600E+4	1.03607E-2	6.35705E+0	1.25488E+0	6.11433E+5	1.20697E+5
-4.04300E-1	2.10580E+4	1.03298E-2	6.35717E+0	1.25407E+0	6.13273E+5	1.20980E+5
-4.12600E-1	2.10590E+4	1.02877E-2	6.35666E+0	1.26281E+0	6.15731E+5	1.22321E+5
-4.21300E-1	2.10580E+4	1.02701E-2	6.35688E+0	1.26182E+0	6.16809E+5	1.22435E+5
-4.29700E-1	2.10610E+4	1.02494E-2	6.35737E+0	1.25493E+0	6.18105E+5	1.22013E+5
-4.38300E-1	2.10620E+4	1.02064E-2	6.35669E+0	1.25889E+0	6.20638E+5	1.22912E+5
-4.46600E-1	2.10620E+4	1.01485E-2	6.35687E+0	1.25483E+0	6.24201E+5	1.23215E+5
-4.54900E-1	2.10610E+4	1.01437E-2	6.35666E+0	1.25356E+0	6.24473E+5	1.23148E+5
-4.63200E-1	2.10630E+4	1.01250E-2	6.35654E+0	1.25987E+0	6.25616E+5	1.23998E+5
-4.71900E-1	2.10620E+4	1.01069E-2	6.35662E+0	1.25008E+0	6.26742E+5	1.23254E+5
-4.80300E-1	2.10620E+4	1.00583E-2	6.35639E+0	1.26309E+0	6.29747E+5	1.25138E+5
-4.88600E-1	2.10640E+4	1.00721E-2	6.35646E+0	1.25728E+0	6.28891E+5	1.24392E+5
-4.96800E-1	2.10640E+4	1.00334E-2	6.35614E+0	1.25970E+0	6.31290E+5	1.25113E+5
-5.05400E-1	2.10630E+4	1.00196E-2	6.35652E+0	1.25309E+0	6.32196E+5	1.24628E+5
-5.13800E-1	2.10660E+4	1.00126E-2	6.35610E+0	1.26690E+0	6.32597E+5	1.26090E+5
-5.22000E-1	2.10620E+4	9.91738E-3	6.35621E+0	1.25857E+0	6.38680E+5	1.26462E+5
-5.30300E-1	2.10670E+4	9.88519E-3	6.35633E+0	1.25783E+0	6.40772E+5	1.26800E+5
-5.39100E-1	2.10640E+4	9.87129E-3	6.35600E+0	1.26113E+0	6.41641E+5	1.27311E+5
-5.47300E-1	2.10610E+4	9.86933E-3	6.35628E+0	1.25863E+0	6.41796E+5	1.27085E+5
-5.55600E-1	2.10630E+4	9.80674E-3	6.35620E+0	1.24844E+0	6.45884E+5	1.26860E+5
-5.64300E-1	2.10640E+4	9.76444E-3	6.35576E+0	1.26616E+0	6.48637E+5	1.29218E+5
-5.72600E-1	2.10670E+4	9.75788E-3	6.35597E+0	1.26400E+0	6.49094E+5	1.29084E+5
-5.81000E-1	2.10620E+4	9.72275E-3	6.35601E+0	1.25481E+0	6.51445E+5	1.28609E+5
-5.89200E-1	2.10620E+4	9.70806E-3	6.35582E+0	1.26567E+0	6.52410E+5	1.29918E+5
-5.97900E-1	2.10620E+4	9.70307E-3	6.35591E+0	1.26069E+0	6.52755E+5	1.29474E+5
-6.06100E-1	2.10640E+4	9.66046E-3	6.35578E+0	1.26649E+0	6.55621E+5	1.30643E+5
-6.14500E-1	2.10630E+4	9.64166E-3	6.35572E+0	1.25584E+0	6.56894E+5	1.29797E+5
-6.23300E-1	2.10620E+4	9.57703E-3	6.35576E+0	1.25660E+0	6.61331E+5	1.30752E+5
-6.31400E-1	2.10650E+4	9.53362E-3	6.35560E+0	1.25964E+0	6.64324E+5	1.31665E+5
-6.39900E-1	2.10630E+4	9.50191E-3	6.35537E+0	1.26306E+0	6.66517E+5	1.32463E+5
-6.48000E-1	2.10640E+4	9.47069E-3	6.35583E+0	1.25094E+0	6.68764E+5	1.31625E+5
-6.56800E-1	2.10620E+4	9.46167E-3	6.35537E+0	1.25719E+0	6.69352E+5	1.32408E+5
-6.65200E-1	2.10630E+4	9.42415E-3	6.35545E+0	1.26618E+0	6.72026E+5	1.33886E+5
-6.73500E-1	2.10620E+4	9.42695E-3	6.35544E+0	1.25626E+0	6.71825E+5	1.32797E+5
-6.81800E-1	2.10640E+4	9.35999E-3	6.35530E+0	1.26352E+0	6.76616E+5	1.34520E+5
-6.90500E-1	2.10640E+4	9.36218E-3	6.35532E+0	1.25935E+0	6.76460E+5	1.34045E+5
-6.98800E-1	2.10640E+4	9.33397E-3	6.35522E+0	1.26062E+0	6.78494E+5	1.34586E+5
-7.07100E-1	2.10630E+4	9.31914E-3	6.35504E+0	1.25554E+0	6.79554E+5	1.34257E+5
-7.15900E-1	2.10650E+4	9.28280E-3	6.35496E+0	1.26046E+0	6.82206E+5	1.35311E+5
-7.24200E-1	2.10640E+4	9.23953E-3	6.35517E+0	1.26131E+0	6.85423E+5	1.36036E+5
-7.32400E-1	2.10630E+4	9.18070E-3	6.35486E+0	1.25932E+0	6.89782E+5	1.36691E+5
-7.40700E-1	2.10610E+4	9.15713E-3	6.35498E+0	1.25953E+0	6.91570E+5	1.37066E+5
-7.49400E-1	2.10600E+4	9.15305E-3	6.35515E+0	1.24827E+0	6.91898E+5	1.35901E+5
-7.57700E-1	2.10640E+4	9.10598E-3	6.35474E+0	1.26169E+0	6.95428E+5	1.38073E+5
-7.65900E-1	2.10640E+4	9.04581E-3	6.35488E+0	1.26284E+0	7.00071E+5	1.39118E+5
-7.74600E-1	2.10610E+4	9.01481E-3	6.35498E+0	1.24841E+0	7.02488E+5	1.38001E+5
-7.82900E-1	2.10630E+4	9.00507E-3	6.35462E+0	1.26076E+0	7.03209E+5	1.39517E+5
-7.91100E-1	2.10620E+4	9.00595E-3	6.35482E+0	1.25399E+0	7.03162E+5	1.38755E+5
-7.99800E-1	2.10610E+4	8.99451E-3	6.35468E+0	1.25591E+0	7.04041E+5	1.39144E+5
-8.08100E-1	2.10600E+4	8.89607E-3	6.35479E+0	1.26126E+0	7.11844E+5	1.41283E+5
-8.16800E-1	2.10570E+4	8.87000E-3	6.35469E+0	1.26137E+0	7.13925E+5	1.41710E+5
-8.25100E-1	2.10590E+4	8.82339E-3	6.35444E+0	1.23380E+0	7.17668E+5	1.39345E+5
-8.33400E-1	2.10620E+4	8.83255E-3	6.35450E+0	1.25652E+0	7.16931E+5	1.41763E+5
-8.41700E-1	2.10620E+4	8.80709E-3	6.35439E+0	1.25767E+0	7.18990E+5	1.42304E+5
-8.50500E-1	2.10580E+4	8.75506E-3	6.35458E+0	1.25372E+0	7.23284E+5	1.42700E+5
-8.58700E-1	2.10590E+4	8.76823E-3	6.35439E+0	1.25630E+0	7.22177E+5	1.42778E+5
-8.67000E-1	2.10620E+4	8.72056E-3	6.35421E+0	1.26602E+0	7.26104E+5	1.44669E+5
-8.75800E-1	2.10580E+4	8.70826E-3	6.35436E+0	1.26954E+0	7.27147E+5	1.45277E+5
-8.83900E-1	2.10560E+4	8.68546E-3	6.35416E+0	1.26224E+0	7.29034E+5	1.44821E+5
-8.91500E-1	2.10590E+4	8.66110E-3	6.35403E+0	1.26979E+0	7.31068E+5	1.46096E+5
-9.00500E-1	2.10570E+4	8.65231E-3	6.35411E+0	1.26452E+0	7.31820E+5	1.45638E+5
-9.09200E-1	2.10580E+4	8.60136E-3	6.35406E+0	1.25116E+0	7.36148E+5	1.44953E+5
-9.16900E-1	2.10590E+4	8.56431E-3	6.35411E+0	1.25970E+0	7.39339E+5	1.46574E+5
-9.25600E-1	2.10530E+4	8.54735E-3	6.35419E+0	1.25479E+0	7.40816E+5	1.46293E+5
-9.34500E-1	2.10530E+4	8.53326E-3	6.35393E+0	1.26041E+0	7.42009E+5	1.47190E+5
-9.42800E-1	2.10540E+4	8.52611E-3	6.35419E+0	1.26110E+0	7.42662E+5	1.47394E+5
-9.51100E-1	2.10550E+4	8.46472E-3	6.35388E+0	1.26113E+0	7.48012E+5	1.48467E+5
-9.59800E-1	2.10540E+4	8.46203E-3	6.35376E+0	1.26413E+0	7.48235E+5	1.48867E+5
-9.68000E-1	2.10510E+4	8.41131E-3	6.35408E+0	1.26163E+0	7.52784E+5	1.49469E+5
-9.76300E-1	2.10570E+4	8.40638E-3	6.35354E+0	1.26473E+0	7.53162E+5	1.49924E+5
-9.84700E-1	2.10520E+4	8.35977E-3	6.35391E+0	1.25176E+0	7.57405E+5	1.49213E+5
-9.93500E-1	2.10530E+4	8.34437E-3	6.35390E+0	1.25585E+0	7.58802E+5	1.49978E+5
-1.00110E+0	2.10520E+4	8.33990E-3	6.35368E+0	1.26120E+0	7.59183E+5	1.50697E+5
-1.00180E+0	2.10530E+4	8.29672E-3	6.35384E+0	1.25745E+0	7.63153E+5	1.51031E+5
-9.99700E-1	2.10490E+4	8.32196E-3	6.35387E+0	1.25646E+0	7.60842E+5	1.50455E+5
